Age_SH20	Ln(Fe/Mn)
cal a BP	NA
118.54	3.544744647
127.62	3.572206339
133.67	3.603858623
142.75	3.483127646
151.83	3.45946629
160.9	3.442783415
169.98	3.54934763
176.04	3.536749678
185.11	3.669994191
194.19	3.694444299
203.27	3.57508844
209.33	3.511383779
218.4	3.687607459
224.46	3.606595762
233.54	3.672822017
242.61	3.545238274
251.92	3.095289466
258.2	3.58316275
267.63	3.488167606
277.05	3.424012059
286.47	NaN
295.89	3.480213922
302.18	3.58302572
311.6	3.443644072
321.02	3.530058215
330.44	3.628466327
339.86	3.571008209
346.15	3.40598296
355.57	3.497956417
364.99	3.473213999
374.41	3.570222875
383.84	3.513924316
390.12	3.473518043
399.54	3.392268751
405.82	3.872636761
415.24	3.394508394
421.53	3.663758865
430.95	3.395724342
437.23	3.301113923
449.79	3.222274299
459.22	3.916015027
468.64	3.364858786
474.92	3.409379777
484.34	3.468048043
493.76	3.392171261
503.19	3.205131002
512.61	3.315976974
518.89	3.476679326
528.31	3.290237747
537.74	3.494571452
547.16	3.351035309
556.58	3.319475023
563.4	3.222867846
574.43	3.267105608
581.79	3.422482246
592.82	3.637844124
600.17	3.619172042
611.2	3.460104844
618.56	3.333885968
633.27	3.197608618
644.3	3.370862002
655.33	3.265973414
662.69	3.413989986
673.72	3.331845508
684.75	3.323673075
695.78	3.105262167
706.82	3.051552344
714.17	3.379155282
725.2	3.250515426
736.23	3.195655283
747.27	3.433856066
758.3	3.294101713
765.65	3.252740339
776.68	3.188016953
784.04	3.288090894
795.07	3.262129103
806.1	3.330439285
813.46	3.160489767
824.49	3.283067063
835.52	3.194753883
846.55	3.096895802
857.59	3.246461735
864.94	3.345655308
875.97	3.448513706
887	3.317705556
898.04	3.358210021
909.07	3.332041418
916.42	3.243169763
927.45	3.605796051
938.56	3.511832424
949.67	3.30878156
957.08	3.280541371
968.19	3.363556949
975.6	3.185019644
986.71	3.255986833
997.82	3.027243733
1008.92	3.152025795
1016.33	2.992812563
1027.44	2.961733856
1038.55	3.217341547
1045.96	3.367427939
1053.36	3.213231181
1060.77	3.152976754
1068.18	3.14133207
1075.58	3.31976482
1082.99	3.474820618
1090.4	3.431888229
1097.8	3.324762154
1105.21	3.277879577
1112.61	3.385558488
1120.02	3.346342352
1127.43	3.446867418
1134.83	3.361623294
1142.24	3.312943905
1149.65	3.311099582
1157.05	3.345004888
1164.46	3.441548677
1171.87	3.601299734
1179.27	3.349972349
1186.68	3.50224629
1194.08	3.597750021
1201.49	3.398579579
1208.9	3.379737998
1216.3	3.356036986
1223.71	3.353662138
1231.12	3.423910449
1238.52	3.311887367
1245.93	3.505843356
1253.34	3.596102827
1260.74	3.481097629
1268.15	3.570812287
1275.55	3.626098647
1282.96	3.391109495
1290.37	3.358360208
1297.77	3.602044927
1301.15	3.391627931
1304.53	3.467066984
1307.91	3.468650607
1311.29	3.482784718
1314.67	3.419274472
1318.05	3.473328954
1321.43	3.356958249
1324.81	3.589396913
1328.19	3.633096814
1331.57	3.624440431
1334.95	3.607920499
1338.32	3.665780787
1341.7	3.632493266
1345.08	3.529482478
1348.46	3.44370809
1351.84	3.185986274
1355.22	3.220320564
1358.6	3.09219741
1361.98	3.155666121
1365.36	3.246635095
1368.74	3.351003593
1372.12	3.344571722
1375.5	3.430200858
1378.87	3.22129283
1382.25	3.161638775
1385.63	3.161269741
1389.01	3.168025287
1392.39	3.180923273
1395.77	3.21809376
1399.15	3.299339497
1402.53	3.309082093
1405.91	3.297824938
1409.29	3.388605928
1412.67	3.281228861
1416.05	3.344131599
1419.42	3.253409856
1422.8	3.399152281
1426.18	3.264138107
1429.56	3.446453973
1432.94	3.388830726
1436.32	3.368591335
1439.7	3.518463488
1443.08	3.345196241
1446.46	3.405607532
1449.84	3.268764287
1453.22	3.06538369
1456.6	3.108981942
1459.98	3.366115115
1463.35	3.444066865
1466.73	3.224952562
1469.57	3.299921005
1473.84	3.347498926
1476.68	3.254565534
1479.52	3.28122445
1482.36	3.382570533
1486.62	3.301824908
1489.46	3.306613888
1492.3	3.523630834
1496.56	3.237122963
1499.4	3.332619706
1502.25	3.284511717
1505.09	3.191664487
1509.35	3.038229511
1512.19	3.160880633
1515.03	3.126352456
1517.87	3.307614488
1522.13	3.201158826
1524.97	3.254020194
1527.81	3.316434557
1532.08	3.108956526
1534.92	3.342987996
1537.76	3.094823176
1540.6	NaN
1544.86	3.494391159
1547.7	3.143941996
1550.54	3.510811135
1554.8	3.372550201
1557.64	3.27108619
1560.48	3.332690301
1563.33	3.179620001
1567.59	3.209360735
1570.43	3.176629421
1573.27	3.050397802
1577.53	3.132003231
1580.37	3.028236586
1583.21	3.127225606
1586.05	2.92084503
1590.31	3.255151722
1593.16	3.203993851
1596	3.170376758
1600.26	3.22460717
1603.1	3.301279178
1605.94	3.153881916
1608.78	3.229996555
1613.68	3.368423135
1616.95	3.198171152
1620.22	3.145662974
1623.48	3.288961932
1739.47	3.092556458
1742.73	3.211593559
1747.63	3.093398167
1750.9	3.144264961
1754.17	3.164429825
1759.07	3.15239522
1762.33	3.096177818
1765.6	3.216099698
1768.87	3.244757498
1773.47	3.203432513
1776.13	3.306195577
1778.79	3.275224118
1782.79	3.203559121
1785.45	3.206500395
1788.11	3.267984364
1790.78	3.182139042
1794.77	3.282413846
1797.43	2.861792634
1800.1	3.140736067
1804.09	3.022337227
1806.76	2.950422887
1809.42	3.127281505
1812.08	3.192263438
1816.08	3.27138577
1818.74	3.351880118
1821.4	3.34700047
1825.4	3.347048055
1828.06	3.415250867
1830.72	3.347837971
1833.39	3.160606917
1837.38	3.071863783
1840.04	3.212922656
1842.71	3.40807529
1845.37	3.383865925
1849.36	3.300073232
1852.03	3.216263721
1854.69	3.334995642
1858.68	3.726619782
1861.35	3.52068836
1864.01	3.28804433
1866.67	3.435718576
1870.67	3.32498025
1873.33	3.410378408
1875.99	3.370006075
1879.99	3.351698305
1882.65	3.276105592
1885.31	3.283414346
1887.98	3.348934938
1891.97	3.288442009
1894.63	3.313240326
1897.3	3.258096538
1901.29	3.403507636
1903.95	3.390658168
1906.95	3.226563243
1910.26	3.320104103
1915.24	3.20941949
1918.56	3.19626927
1921.88	3.190012555
1926.86	3.35755022
1930.18	3.397984896
1933.5	3.216316642
1936.82	3.218181139
1941.79	3.230304521
1945.11	3.190345469
1948.43	3.218028905
1953.41	3.337997677
1956.73	3.351105
1960.05	3.052769907
1963.37	3.372586848
1968.35	3.342836012
1971.67	3.260364756
1974.98	3.274021195
1978.3	3.274155194
1983.28	3.266221945
1986.6	3.637359274
1989.92	3.41854602
1994.9	3.334743227
1998.22	3.383236595
2001.54	3.309298831
2004.85	3.537289595
2009.83	3.268635869
2013.15	3.335432686
2016.47	3.188069762
2021.45	3.317256549
2024.77	3.459182715
2028.09	3.352354769
2031.41	3.287877615
2036.39	3.239569321
2039.7	3.159487896
2043.02	3.039202188
2048	3.019952705
2051.32	3.189833139
2054.64	3.145030976
2057.96	3.067485559
2062.94	2.982849648
2066.26	3.151556429
2069.57	2.875863731
2074.22	2.959594885
2077.21	3.002542365
2080.19	2.933019102
2083.18	2.926319146
2087.66	2.981497158
2090.65	2.804636191
2093.64	2.891186024
2096.62	3.03638709
2101.1	2.901810775
2104.09	2.912267898
2107.08	3.003466264
2111.56	2.948448608
2114.54	3.050199872
2117.53	3.37290988
2120.52	3.061307854
2125	3.33807422
2127.98	3.08049754
2130.97	2.937838295
2135.45	2.910669835
2138.44	2.989796323
2141.42	3.113942568
2144.41	3.099724507
2148.89	3.204055805
2151.88	3.400732157
2154.86	3.270620995
2159.35	3.086048685
2162.33	3.150596984
2165.32	2.980470416
2168.31	3.062332347
2172.79	2.970269591
2175.77	3.068458478
2178.76	3.043226821
2183.24	3.046236969
2186.23	3.034952987
2189.21	3.068944354
2192.2	3.088480475
2196.68	3.083923952
2199.67	3.078568279
2202.65	3.185797403
2205.64	3.113099076
2210.12	3.1956376
2213.11	3.153715844
2216.09	3.205116112
2220.57	3.208196048
2223.18	2.897868045
2225.79	3.161838984
2228.39	3.146212165
2232.3	3.15678834
2234.91	3.248811927
2237.51	3.148536964
2241.42	3.22126996
2244.03	3.234030126
2246.63	3.213849285
2249.24	3.243885144
2253.15	3.219283905
2255.76	3.28042353
2258.36	3.411615466
2262.27	3.243627207
2264.88	3.162980693
2267.48	3.379019642
2270.09	3.336127087
2274	3.204018525
2276.6	3.146826971
2279.21	3.267127955
2283.12	3.398459261
2285.73	3.308656588
2288.33	3.166051895
2290.94	3.393798281
2294.85	3.22983913
2297.45	3.374092035
2300.06	3.098965528
2302.66	3.182622134
2306.57	3.075917421
2309.18	3.104410542
2311.79	3.236269683
2315.69	3.467714578
2318.3	3.198820992
2320.91	3.117116321
2323.51	3.147624766
2327.42	3.203959939
2330.03	3.230873737
2332.63	3.240794133
2336.54	3.093704451
2339.15	3.231368889
2341.75	3.216563122
2344.36	3.135639133
2348.27	3.16189839
2350.88	3.228766148
2353.3	3.581950758
2356.93	3.160073441
2359.35	3.290576139
2361.77	3.245097283
2364.2	3.419523722
2367.83	3.411346073
2370.25	3.499309469
2372.67	3.243354256
2376.3	3.193696607
2378.73	3.268788254
2381.15	3.110930921
2383.57	3.192005049
2387.2	3.235676574
2389.62	3.156300288
2392.05	3.077407413
2394.47	3.154590075
2398.1	3.157804368
2400.52	3.081740061
2402.94	2.73817127
2406.58	2.904466104
2409	2.913084825
2411.42	3.022132298
2413.84	2.886462754
2417.47	2.907950686
2419.9	2.795256981
2422.32	2.808676637
2425.95	2.973077583
2428.37	2.816916016
2430.79	2.860942228
2433.21	2.8549739
2436.85	2.738099727
2439.27	2.72383207
2441.69	2.655619158
2445.32	2.611389074
2447.74	2.505903795
2450.17	2.678692636
2452.59	2.691317746
2456.22	2.757934457
2458.64	2.72744139
2461.06	2.771749444
2464.7	2.787289911
2467.12	2.895578166
2469.54	3.179909118
2471.96	3.214132197
2474.51	3.397364911
2477.06	3.287557212
2478.33	3.414198914
2480.88	3.371614288
2483.43	3.497372988
2485.98	3.302233671
2488.53	3.470842896
2491.08	3.436061067
2492.35	3.362086252
2494.9	3.51181876
2497.45	3.546096424
2500	3.413954299
2502.55	3.421994115
2503.82	3.47119237
2506.37	3.289196566
2508.92	3.366390955
2511.47	3.310398463
2514.02	3.326861463
2516.56	3.268601417
2517.84	3.442117331
2520.39	3.500844395
2522.94	3.239095553
2525.48	3.334965672
2528.03	3.225346988
2529.31	3.340372122
2531.86	3.335860821
2534.41	3.368841937
2536.95	3.343971157
2539.5	3.287757579
2542.05	3.276588151
2543.33	3.384926485
2545.87	3.262226266
2548.42	3.332059907
2550.97	3.309398694
2553.52	3.327953561
2554.79	3.233581972
2557.34	3.420970567
2559.89	3.258486934
2562.44	3.274974576
2564.99	3.308002274
2567.54	3.405004388
2568.81	3.509308602
2571.36	3.414514116
2573.91	3.334625623
2576.46	3.431038141
2579.01	3.082624108
2580.28	3.230259547
2582.83	3.206803244
2585.38	3.303676427
2587.93	3.335137236
2590.48	3.224736752
2593.03	3.250566472
2594.3	3.457678235
2596.85	3.455056551
2599.4	3.265077608
2601.94	3.361074583
2604.49	3.269795915
2605.76	3.324188001
2608.31	3.278789574
2610.85	3.296883302
2613.4	3.259494162
2615.94	3.376411404
2618.49	3.238613308
2619.76	3.242307356
2622.31	3.126236701
2624.85	3.13074494
2627.4	3.17141081
2629.94	3.142608971
2631.21	3.152287322
2633.76	3.216718618
2636.31	3.041158263
2638.85	3.268273707
2641.4	3.242616919
2643.94	3.079355426
2645.21	3.020078045
2647.76	3.103306404
2650.31	3.084864255
2652.85	3.169685581
2655.4	3.073265352
2656.67	3.053389316
2659.21	2.982430989
2661.76	2.985611789
2664.31	3.071848951
2666.85	3.051128488
2669.4	2.973818377
2670.67	2.945380789
2673.21	2.893541333
2675.76	2.99212111
2678.31	3.344632264
2680.85	3.237280611
2682.12	3.135947012
2684.67	3.141162927
2687.21	3.220948603
2689.76	3.003726068
2692.31	3.022444137
2694.85	3.04770614
2696.12	3.046078858
2698.67	3.251047338
2701.21	3.198619269
2703.76	3.176016624
2706.31	3.067477537
2707.58	3.124496605
2710.12	3.118583974
2712.67	3.168193549
2715.21	3.170203906
2717.76	3.209277671
2720.31	3.052242131
2721.58	2.888954323
2724.12	3.102224224
2726.67	2.997868149
2729.22	2.854004114
2731.78	2.64619892
2733.06	2.835606008
2735.61	3.005998802
2738.17	2.827123603
2740.72	2.955882661
2743.28	3.018755785
2745.83	3.057829631
2747.11	3.063367731
2749.66	3.103312546
2752.22	3.261528545
2754.77	2.976615055
2757.33	2.926639637
2758.6	2.964818927
2761.16	2.849639655
2763.71	2.997106329
2766.27	3.004916163
2768.82	3.044925908
2771.38	3.088306474
2772.66	2.987889096
2775.21	2.798426209
2777.77	2.991770354
2780.32	2.978431
2782.88	2.967659491
2784.15	3.005777802
2786.71	2.993251722
2789.26	3.013806166
2791.82	2.87246548
2794.37	3.004524676
2796.93	3.02129949
2798.2	3.174927851
2800.76	3.084290405
2803.31	3.130252102
2805.87	3.049921886
2808.42	3.200737634
2809.7	2.955541393
2812.26	3.168307031
2814.81	3.163978442
2817.37	3.121846521
2819.92	3.035231655
2822.48	3.126532338
2823.75	3.173265964
2826.31	3.070539367
2828.86	3.022527416
2831.42	3.11189784
2833.97	3.189333195
2835.25	3.347093123
2837.8	3.186058306
2840.36	3.126804726
2842.91	3.120329646
2845.47	3.258222633
2848.02	3.125977433
2849.3	3.238999841
2851.86	3.131506572
2854.41	3.14668636
2856.93	3.121393797
2859.45	3.250353195
2860.7	3.277298955
2863.22	3.402106811
2865.74	3.188970159
2868.26	3.173442795
2870.77	3.082459519
2873.29	3.047952973
2874.55	3.392441209
2877.07	3.219941923
2879.58	3.178552111
2882.1	3.250055868
2884.62	3.233449955
2885.88	3.218968844
2888.39	3.194258099
2890.91	3.308642412
2893.43	3.252054224
2895.95	3.096003875
2898.46	3.21086215
2899.72	3.230326722
2902.24	3.176686776
2904.76	3.21907885
2907.27	3.094938154
2909.79	3.133250553
2911.05	3.098483755
2913.57	2.93587144
2916.08	3.115653694
2918.6	3.399387836
2921.12	3.079942111
2923.64	3.17082884
2924.89	3.081052776
2927.41	2.955113621
2929.93	2.975914125
2932.45	2.886999073
2934.96	2.82187365
2936.22	2.804603389
2938.74	2.934514209
2941.26	2.962566364
2943.77	2.877349743
2946.29	2.934672017
2948.81	2.949688335
2950.07	2.988447741
2952.58	2.846280681
2955.1	2.848581374
2957.62	2.945878386
2960.14	2.991566058
2961.39	2.892663815
2963.91	2.774238304
2966.43	2.940785785
2968.95	2.902060962
2971.46	2.850877659
2973.98	2.813923406
2975.24	2.878628355
2977.76	2.725342543
2980.27	2.876688363
2985.03	2.970123709
2989.78	2.991616165
2992.16	2.946430615
2996.92	3.125959603
3001.67	3.100462092
3006.43	3.010637699
3011.18	3.181280383
3015.94	3.294167138
3018.31	3.102553985
3023.07	2.943282984
3027.82	2.900149948
3032.58	3.029033998
3037.33	3.123686588
3039.71	3.072590808
3044.47	2.99424307
3049.22	2.95676782
3053.98	3.048942334
3058.73	2.769548786
3063.49	2.831231744
3065.86	2.882384809
3070.62	2.853289479
3075.37	2.932798049
3080.13	2.800346536
3084.88	2.702466545
3087.26	2.953481594
3092.02	3.041785594
3096.77	3.0775833
3101.53	2.945833061
3106.28	2.941589974
3111.04	3.121785113
3113.41	2.83646264
3118.17	3.054443301
3122.92	3.127557666
3127.68	3.182376787
3132.43	2.998772145
3134.81	3.006049241
3139.57	3.035784741
3144.32	3.07526627
3149.08	3.159468204
3153.83	3.045903567
3158.59	3.072840276
3160.96	3.020615914
3165.72	2.94333902
3170.47	3.084549414
3175.23	2.888038035
3179.98	3.047157138
3182.36	3.167635962
3187.12	3.151267921
3191.87	3.104608768
3196.63	3.040863554
3201.38	2.914975305
3206.14	3.233235506
3208.51	3.097926688
3213.27	3.110055098
3218.02	3.080461574
3222.86	3.076109373
3227.7	2.908084966
3230.12	3.04511899
3234.96	3.104420579
3239.8	3.183468029
3244.63	3.208590554
3249.47	3.284663565
3254.31	3.177569217
3256.73	3.143805852
3261.57	3.367692105
3266.41	3.253249
3271.24	3.301956265
3276.08	3.286109574
3278.5	3.170004645
3283.34	3.176186416
3288.18	3.20843314
3293.02	3.407055893
3297.85	3.155748073
3302.69	3.304711726
3305.11	3.246055946
3309.95	3.092228552
3314.79	3.208521399
3319.63	3.042235071
3324.46	2.999092008
3326.88	3.025669267
3331.72	3.037152728
3336.56	3.081485763
3341.4	3.114069172
3346.24	3.037013016
3351.07	2.958638149
3353.49	2.962837011
3358.33	3.030967261
3363.17	3.005163964
3368.01	3.105963719
3372.85	3.040955782
3375.26	3.018546951
3380.1	2.919638781
3384.94	2.941301229
3389.78	2.842756896
3394.62	2.970217207
3399.45	2.621564172
3401.87	2.909288917
3406.71	2.95078996
3411.55	2.890371758
3416.39	2.896594553
3421.23	2.884608053
3423.65	3.00884043
3428.48	3.099805489
3433.32	3.057224407
3438.16	3.044362629
3443	2.922763254
3447.84	2.962218094
3450.26	2.991878704
3455.09	3.066489756
3459.93	2.966027119
3464.51	3.013323549
3469.09	2.871014036
3471.38	3.061067671
3475.95	3.01489531
3480.53	2.736786596
3485.11	2.988010227
3489.69	3.115191053
3494.26	2.882187349
3496.55	2.959317746
3501.13	3.386050566
3505.71	2.763220379
3510.28	2.822713109
3514.86	2.783967401
3517.15	2.804968098
3521.73	2.799632014
3526.31	2.764906226
3530.88	2.811461916
3535.46	2.994908889
3540.04	2.85382796
3542.33	2.820956143
3546.9	2.804050591
3551.48	2.834620364
3556.06	2.964617348
3560.64	2.950465307
3562.93	2.910129348
3567.5	2.821793207
3572.08	2.816092831
3576.66	2.928653944
3581.24	3.003131884
3585.81	2.937777162
3588.1	2.858110896
3592.68	2.920769235
3597.26	2.965837799
3601.83	3.241244461
3606.41	3.216953979
3608.7	3.035038327
3613.28	2.992633013
3617.86	2.843529482
3622.43	2.837367599
3627.01	3.15124848
3631.59	2.960922869
3633.88	2.95546568
3638.45	3.055572274
3643.03	2.998222246
3647.61	2.946461225
3652.19	3.028853744
3654.48	3.103678729
3659.05	2.988728106
3663.63	3.072548628
3668.21	3.143698455
3672.79	3.085671949
3677.36	3.115981402
3679.65	2.91632068
3684.23	3.135379793
3688.81	3.061465661
3693.6	3.047716544
3698.39	3.336122862
3700.78	3.135960362
3705.57	3.098041492
3710.36	3.08524299
3715.15	3.286029168
3719.94	2.996972199
3724.73	3.032442675
3727.13	3.165291579
3731.92	3.065465612
3736.71	3.103362938
3741.5	3.115677472
3746.29	2.86352728
3748.68	3.206693072
3753.47	3.223599852
3758.27	3.321248832
3763.06	3.25543612
3767.85	3.189331224
3772.64	3.1091444
3775.03	3.381018377
3779.82	3.206698232
3784.61	3.186683985
3789.4	3.297801503
3794.19	3.214351499
3796.59	3.211501764
3801.38	3.291231457
3806.17	3.275268677
3810.96	3.390188096
3815.75	3.33654554
3820.54	3.312353064
3822.93	3.392410778
3827.72	3.397893318
3832.51	3.169522395
3837.3	3.179051337
3842.09	3.195387844
3844.49	3.072748428
3849.28	3.037027529
3854.07	3.013821638
3858.86	3.065699847
3863.65	2.840155138
3868.44	2.887015161
3870.83	2.957919374
3875.63	2.813042228
3880.42	2.897859991
3885.21	2.987829408
3890	3.064425215
3892.39	2.947606272
3897.18	2.829437586
3901.97	2.980618636
3904.37	3.005716281
3909.16	2.930078303
3913.95	2.919441111
3918.74	2.859094019
3923.53	2.846280681
3928.32	2.762680169
3933.28	2.741661548
3938.25	2.67514285
3943.21	2.634336628
3948.18	2.628965501
3953.14	2.719172331
3958.11	2.786837582
3963.07	2.774585661
3968.04	2.875019049
3973	2.954509558
3977.97	2.808994199
3982.94	2.850436915
3987.9	2.962831795
3992.87	2.816482916
3997.83	2.585958534
4002.8	2.595170853
4007.76	2.529129794
4012.73	2.733655639
4017.69	2.797387837
4022.66	2.742854123
4027.62	2.890787818
4032.59	2.8056272
4037.55	2.696584472
4042.52	2.835865054
4047.48	2.775024777
4052.45	2.807497039
4057.41	2.886280577
4062.38	2.910914607
4067.34	2.797746143
4072.31	2.872184888
4077.27	2.684089408
4082.24	2.823361048
4087.21	2.696641565
4092.17	2.929935099
4097.14	2.929453108
4102.1	3.253130849
4107.07	3.070255188
4112.03	2.789100127
4117	3.008795922
4121.96	2.918573193
4126.93	2.950386172
4131.89	3.061471996
4136.86	2.953343148
4141.82	2.898901114
4146.79	3.087309713
4151.75	3.193589096
4156.72	2.971089002
4161.68	2.994215973
4166.65	2.891108949
4171.61	2.869318349
4176.58	2.773942819
4181.32	2.651743939
4186.06	2.643935388
4190.8	2.707663653
4195.54	2.877703739
4200.28	2.968325224
4205.02	2.856307154
4209.75	NaN
4214.49	NaN
4219.23	3.228826156
4228.71	2.793208009
4233.45	2.40356101
4238.19	2.921624301
4242.93	2.905850682
4247.67	3.080565058
4252.41	3.189397972
4257.15	3.011168082
4261.89	2.928103101
4266.62	2.824999746
4271.36	2.668862545
4276.1	2.85529602
4280.84	2.893029567
4285.58	2.840135284
4290.32	2.844158915
4295.06	2.849638008
4299.8	2.831937223
4304.54	2.941437664
4309.28	2.851537444
4314.02	2.775358551
4318.76	2.743881221
4323.49	2.866837733
4328.23	2.82559426
4332.97	2.885617929
4337.71	3.059418159
4342.45	3.10538124
4347.19	3.126874082
4351.93	3.305567151
4356.67	3.124737218
4361.41	3.158196189
4366.15	3.152364344
4370.89	3.236065633
4375.63	3.396571313
4380.36	3.361276001
4385.1	3.231873343
4389.84	3.283132139
4394.58	3.330474905
4399.32	3.517368813
4404.06	3.519261672
4408.8	3.297926474
4413.54	3.30684203
4416.28	3.250058752
4419.02	3.26369773
4421.75	3.12176895
4424.49	3.243589926
4427.23	3.24892946
4429.97	3.112795108
4432.71	3.207836858
4435.45	3.034790001
4438.18	2.899879619
4440.92	2.893777259
4443.66	2.879959927
4446.4	2.729983911
4449.14	2.709119965
4451.88	2.561504517
4454.62	2.625583195
4457.35	2.479398728
4460.09	2.648323675
4462.83	2.799148915
4465.57	2.603350842
4468.31	2.93857386
4471.05	2.929691521
4473.78	3.079613758
4476.52	3.019148765
4479.26	2.815826401
4482	2.665234297
4484.74	2.72341542
4487.48	2.680996019
4490.21	2.709508991
4492.95	2.72583204
4495.69	2.672906116
4498.43	2.76953252
4501.17	2.903756489
4503.91	2.752044802
4506.65	2.701509794
4509.38	2.722827213
4512.12	2.681904921
4514.86	2.674307544
4517.6	2.653020137
4520.34	2.642070893
4523.08	2.874487725
4525.81	2.728884288
4528.55	2.827283887
4531.29	2.894166364
4534.03	2.774005488
4536.77	2.729659012
4539.51	2.816281855
4542.24	2.908980603
4544.98	2.898323436
4547.72	2.963691751
4550.46	3.08713874
4552.24	3.165214557
4554.03	2.826985704
4555.81	2.770576465
4557.6	2.905059565
4559.38	2.967489061
4561.17	2.840583091
4562.95	3.043427147
4564.74	2.689319164
4566.52	2.523738594
4568.31	2.685634591
4570.09	2.631050324
4571.88	2.815424192
4573.66	2.793905481
4575.45	2.637925468
4577.23	2.61678861
4579.02	2.700092222
4580.8	2.744696824
4582.59	2.540687484
4584.37	2.637426451
4586.16	2.515642615
4587.94	2.660909838
4589.73	2.881286686
4591.51	2.61737004
4593.29	2.623364579
4595.08	2.67252734
4596.86	2.587331445
4598.65	2.687157124
4600.43	2.674704668
4602.22	2.710906404
4604	2.676501843
4605.79	2.691082668
4607.57	2.973976283
4609.36	2.73415802
4611.14	2.651502754
4612.93	2.616140986
4614.71	2.609850278
4616.5	2.576827745
4618.28	3.093644739
4620.07	2.993296219
4621.85	3.054844689
4623.64	3.045577151
4625.42	2.771714214
4627.21	3.121623166
4628.99	2.816311533
4630.78	2.694117107
4632.56	2.933567569
4634.34	3.049324835
4636.13	3.053351182
4637.91	3.286876931
4639.7	3.162650265
4641.38	3.212138897
4643.05	3.224696689
4644.73	2.840774817
4646.41	2.714610377
4648.08	2.699744506
4649.76	2.669236423
4651.44	2.727284324
4653.12	2.606158533
4654.79	2.91506437
4656.47	2.801615765
4658.15	2.78474642
4659.82	2.919183455
4661.5	2.819545705
4663.18	2.763829542
4664.85	2.775872797
4666.53	2.916114646
4668.21	2.786302398
4669.89	2.858891231
4671.56	2.819596531
4673.24	2.918880815
4674.92	2.692782729
4676.59	2.447857837
4678.27	2.55040967
4679.95	2.758248946
4681.62	2.996152353
4683.3	NaN
4684.98	NaN
4686.66	2.024381764
4688.33	NaN
4693.36	3.131409799
4695.04	2.842843424
4696.72	3.027546377
4698.4	2.944010989
4700.07	2.91132399
4701.75	3.049436453
4703.43	3.017476895
4705.1	2.745576728
4706.78	2.90009674
4708.46	2.96046652
4710.13	2.834443205
4711.81	2.912002017
4713.49	2.710957847
4715.17	2.699699422
4716.84	2.67052819
4718.52	2.719194766
4720.2	2.843970368
4721.87	2.972472785
4723.55	3.053497299
4725.74	3.230358206
4727.93	3.101397365
4730.11	3.140215381
4732.3	3.157480229
4734.49	3.146958397
4736.67	3.053633855
4738.86	3.248553019
4741.05	3.14045448
4743.24	2.904205971
4745.42	2.869910686
4747.61	2.821777678
4749.8	2.731124114
4751.99	2.774895174
4754.17	2.875667817
4756.36	3.179287637
4758.55	2.981079997
4760.74	3.08955325
4762.92	3.060410294
4765.11	2.856236793
4767.3	2.974995326
4769.49	2.870937613
4771.67	2.982504141
4773.86	2.876536951
4776.05	3.213061855
4778.24	2.755847809
4784.8	NaN
4786.98	3.219346302
4789.17	3.207592899
4791.36	3.093312602
4793.55	3.116642406
4795.73	2.998695239
4797.92	2.959197949
4800.11	3.073351117
4802.3	2.935987336
4804.48	3.256228736
4806.67	3.103352734
4808.86	2.955094628
4811.05	2.935227837
4813.23	2.981633349
4815.42	2.959181261
4817.61	2.888027091
4819.8	2.970537142
4821.98	3.012261576
4824.17	2.95485909
4826.36	3.049440297
4828.55	2.895065028
4830.73	3.019257207
4832.92	3.041842369
4834.93	3.003813567
4836.93	3.022412789
4838.94	3.049980967
4840.95	3.021948116
4842.95	2.907098272
4844.96	3.061630164
4846.96	2.986548015
4848.97	3.145580595
4850.98	3.060748622
4852.98	3.014421963
4854.99	3.039964178
4857	3.091890578
4859	3.172019618
4861.01	3.288296774
4863.01	3.062671756
4865.02	3.067644855
4867.03	3.114433851
4869.03	3.174299468
4871.04	3.090918928
4873.05	3.153321816
4875.05	3.201518853
4877.06	3.229976771
4879.06	3.108733251
4881.07	3.062740054
4883.08	3.14044256
4885.08	3.040587361
4887.09	3.039319672
4889.1	3.059396811
4891.1	3.055679117
4893.11	3.093627269
4895.11	3.042706731
4897.12	2.989285203
4899.13	3.203610971
4901.13	3.157763036
4903.14	3.051057285
4905.15	3.231504773
4907.15	3.046311027
4909.16	3.064276523
4911.16	3.097588558
4913.17	3.064103483
4915.18	2.994610568
4917.18	3.031260743
4919.19	2.970886275
4921.2	3.008394487
4923.2	2.944680934
4925.21	3.007947861
4927.21	3.01658257
4929.22	3.127004171
4931.23	2.724919962
4933.23	2.924476446
4935.32	2.72892579
4937.42	3.055958976
4939.51	2.935762832
4941.6	2.900384872
4943.69	2.840239369
4945.78	2.708204868
4947.87	2.768992737
4949.96	2.974365924
4952.05	2.888919133
4954.14	3.007259779
4956.23	2.980189218
4958.33	3.011671406
4960.42	3.018621025
4962.51	3.656946407
4964.6	2.531710716
4966.69	3.258096538
4968.78	3.64341708
4970.87	3.797360097
4972.96	3.340671961
4975.05	3.118473756
4977.15	2.927479747
4979.24	3.060763575
4981.33	2.834294571
4983.42	2.965138001
4985.51	2.952831595
4987.6	2.994386076
4989.69	2.856589723
4991.78	2.925114706
4993.87	2.993464897
4995.96	2.917650068
4998.06	2.91519925
5000.15	2.975900555
5002.24	3.035630765
5004.33	3.087639712
5006.42	2.927214213
5008.51	2.969258797
5010.6	2.97672154
5012.69	3.033033627
5014.78	3.090940303
5016.87	3.028522096
5018.97	3.161083726
5021.06	3.14743097
5023.15	3.009125331
5025.24	3.068732699
5027.33	3.168167155
5029.42	2.867006591
5031.51	3.013080912
5033.6	3.172676361
5035.69	3.075080697
5037.78	3.028443223
5039.88	2.94207276
5041.98	3.111471179
5044.08	3.070258332
5046.18	3.052579029
5048.27	3.444471812
5050.37	3.276845197
5052.47	3.025716963
5054.57	2.962921353
5056.67	2.991595288
5058.76	3.044834645
5060.86	3.17175734
5062.96	3.233928627
5065.06	3.234275041
5067.16	3.398847204
5069.25	3.244235737
5071.35	3.090911452
5073.45	3.05067441
5075.55	3.098309068
5077.65	3.049674174
5079.74	3.2907871
5081.84	2.992827828
5083.94	3.083232904
5086.04	3.078278966
5088.14	3.054231252
5090.23	2.994609194
5092.33	3.003968936
5094.43	2.728208277
5096.53	2.666135225
5098.63	2.759336104
5100.72	2.916041483
5102.82	2.918471476
5104.92	3.005929413
5107.02	2.983047114
5109.12	2.918210815
5111.21	2.956200588
5113.31	2.918239299
5115.41	3.022029226
5117.51	3.023652115
5119.61	2.984902872
5121.7	2.851227341
5123.8	2.737178474
5125.9	2.642872978
5128	2.535566713
5130.1	2.505669646
5132.19	2.622550033
5134.29	2.928280947
5136.39	2.775172527
5138.49	2.544064842
5140.59	2.527112302
5142.68	2.434875443
5144.74	2.527107004
5146.79	2.76078221
5148.84	2.863483408
5150.9	2.839263119
5152.95	3.00867926
5155.01	2.948563197
5157.06	2.914726921
5159.11	2.984395938
5161.17	2.985681938
5163.22	3.08814874
5165.27	2.970813468
5167.33	2.90416508
5169.38	2.808424484
5171.43	2.897751865
5173.49	2.927311321
5175.54	2.911243952
5177.6	2.834868974
5179.65	2.865668806
5181.7	2.849128799
5183.76	2.899920575
5185.81	2.804727042
5187.86	2.915511752
5189.92	3.02516498
5191.97	3.432519853
5194.03	3.024185405
5196.08	2.833773411
5198.13	3.054560667
5200.19	2.887364237
5202.24	2.940130229
5204.29	2.6683153
5206.35	2.864123532
5208.4	2.862024135
5210.45	3.016600542
5212.51	3.106299797
5214.56	3.050044263
5216.62	2.98307583
5218.67	2.893259517
5220.72	2.999593006
5222.78	2.936405374
5224.83	2.838810582
5226.88	3.049486676
5228.94	2.643473693
5230.99	2.702164946
5233.04	2.898872729
5235.1	2.881165709
5237.15	2.897650673
5239.21	3.065022499
5241.26	2.870984531
5243.31	2.873659588
5245.37	2.942037697
5247.43	2.958953022
5249.49	2.858286681
5251.54	2.747059855
5253.6	2.528643524
5255.66	2.481455821
5257.72	2.494364705
5259.78	2.358449741
5261.84	2.366906199
5263.9	2.500869351
5265.96	2.637595222
5268.02	2.699700667
5270.08	2.874631528
5272.14	2.986876471
5274.2	3.037029831
5276.26	3.039318836
5278.31	3.296214724
5280.37	3.204253306
5282.43	3.108099435
5284.49	3.165891693
5286.55	3.178927574
5288.61	3.12037747
5290.67	3.019949197
5292.73	3.131716014
5294.79	2.832757244
5296.85	2.946016681
5298.91	3.077077913
5300.97	3.045904608
5303.03	3.017872128
5305.09	3.143912786
5307.14	3.048474622
5309.2	3.08970203
5311.26	3.146022127
5313.32	2.944959948
5315.38	2.90332714
5317.44	2.946439869
5319.5	3.038835377
5321.56	2.948191329
5323.62	2.966927712
5325.68	2.925773685
5327.74	3.007473232
5329.8	2.96935533
5331.86	3.156201643
5333.91	2.85285391
5335.97	2.500980475
5338.03	2.603787912
5340.09	2.777009015
5342.15	2.735484275
5344.21	2.643560827
5346.27	2.773455065
5348.33	2.721409178
5350.38	2.657897536
5352.44	2.775824971
5354.49	2.752067087
5356.55	2.901058255
5358.6	2.865148746
5360.66	2.907269166
5362.71	2.800480769
5364.77	2.802262188
5366.82	2.828067875
5368.88	2.799977381
5370.93	2.818676826
5372.99	2.703880271
5375.04	2.787248274
5377.1	2.652003412
5379.15	2.700335602
5381.21	2.798426399
5383.26	2.678419292
5385.32	2.704387899
5387.37	2.605402655
5389.42	2.528566718
5391.48	2.593302657
5393.53	2.642413037
5395.59	2.788902298
5397.64	2.803469772
5399.7	2.917077491
5401.75	2.698465796
5403.81	2.78045906
5405.86	3.164044308
5407.92	3.010498109
5409.97	2.851622566
5412.03	2.814135842
5414.08	2.868623978
5416.14	2.816354586
5418.19	2.613676828
5420.25	2.651569789
5422.3	2.861614428
5424.36	2.847764625
5426.41	2.638954104
5428.47	2.621167765
5430.52	2.617246498
5432.58	2.706219765
5434.63	2.744371761
5436.68	2.717438951
5438.74	2.740355551
5440.79	2.510391333
5442.85	2.582155083
5444.9	2.646030048
5446.96	2.9347688
5449.01	2.980775808
5451.07	2.917052148
5458.83	2.679741167
5466.6	2.830655454
5474.36	2.826715319
5482.13	2.901306116
5489.89	2.796603598
5497.66	2.750769062
5505.43	2.909427844
5513.19	3.192542273
5520.96	3.109229408
5528.72	3.050896159
5536.49	3.083061238
5544.25	3.139998728
5552.02	3.191337306
5559.78	3.09682839
5567.55	3.215207132
5575.31	3.171971206
5583.08	3.00367363
5590.84	2.928624417
5598.61	3.087427802
5606.37	3.186492699
5614.14	3.159188264
5621.9	3.03129531
5629.67	3.172976506
5637.43	3.152942783
5645.2	3.036932895
5652.97	3.047274473
5660.73	3.038368007
5668.5	3.123172177
5676.26	3.307788081
5684.03	3.230700245
5691.79	3.106226468
5699.56	2.868252571
5707.32	2.611894594
5715.09	2.500762629
5722.85	2.30461295
5730.62	1.997183071
5738.38	1.047515291
5746.15	1.768363678
5753.91	1.484050669
5761.68	2.762508368
5769.44	2.979500848
5777.21	3.134633836
5784.97	3.101952246
5792.74	3.148495777
5800.51	3.178873167
5808.27	3.334509544
5816.04	3.19231239
5823.8	3.150283033
5831.57	3.170260076
5839.33	3.285489983
5846.82	3.394716862
5854.31	3.370320647
5861.8	3.289294909
5869.29	3.376475699
5876.78	3.162472154
5884.27	3.332157017
5891.76	3.372892436
5899.25	3.368905877
5906.74	3.352205177
5914.23	3.384040013
5921.72	3.483478797
5929.2	3.714995301
5936.69	3.654070049
5944.18	3.629456034
5959.16	3.522202514
5966.65	3.314050057
5974.14	3.437482786
5981.63	3.419617819
5989.12	3.480010385
5996.61	3.431801411
6004.1	3.281136593
6011.59	3.315239931
6019.08	3.339127792
6026.57	3.402676771
6034.06	3.511447883
6041.55	3.503375756
6049.03	3.308588229
6056.52	3.340569826
6064.01	3.441837266
6071.5	3.431743898
6078.99	3.554274645
6086.48	3.644770723
6093.97	3.661445919
6101.46	3.596483789
6108.95	3.517708402
6116.44	3.5180049
6123.93	3.464522988
6131.42	3.492797225
6138.91	3.460640583
6146.4	3.330517552
6153.89	3.372115808
6161.38	3.298196137
6168.86	3.162626315
6176.35	3.019895961
6183.84	2.952879744
6191.33	2.966107335
6198.82	2.775992582
6206.31	2.88274655
6213.8	2.760115916
6220.9	2.593743576
6228.01	2.549551347
6235.11	2.495601939
6242.21	2.241627395
6249.32	2.531247138
6256.42	2.467729214
6263.52	2.746198631
6270.63	2.553423601
6277.73	2.833786602
6284.83	2.81094322
6291.93	2.380375629
6299.04	2.866504276
6306.14	3.304019913
6313.24	2.955510115
6320.35	3.174246592
6327.45	3.179485785
6334.55	2.416299763
6341.66	3.042484679
6348.76	2.90153353
6355.86	2.962093628
6362.96	2.885339035
6370.07	2.523896902
6377.17	2.79081979
6384.27	2.464705919
6391.38	2.798650177
6398.48	2.709644371
6405.58	2.996776832
6412.69	2.694473514
6419.79	2.810879299
6426.89	2.260905994
6434	2.779038583
6441.1	2.406564003
6448.2	2.574367625
6455.3	2.438390551
6462.41	2.551710748
6469.51	2.636489446
6476.61	2.650461507
6483.72	2.747339106
6490.82	2.491462428
6497.92	2.032361453
6505.03	2.498013312
6512.13	2.987033128
6519.23	2.740725897
6526.33	2.755094449
6533.44	2.687173059
6540.54	1.846393705
6547.64	2.670196478
6554.75	3.002831368
6561.85	2.540873496
6568.95	2.566828644
6576.26	2.584273033
6583.57	2.913276342
6590.87	2.62410378
6598.18	2.476354114
6605.48	2.199702985
6612.79	2.295877667
6620.1	2.294082324
6627.4	2.74714657
6634.71	2.821153695
6642.02	3.120922301
6649.32	2.933331384
6656.63	3.111764622
6663.94	3.10426811
6671.24	3.081502139
6678.55	3.092794565
6685.85	3.114010389
6693.16	2.880401586
6700.47	2.844628186
6707.77	2.667754028
6715.08	2.938436279
6722.39	3.456787778
6729.69	3.424880643
6737	3.321108099
6744.3	3.227418938
6751.61	3.172981464
6758.92	2.890371758
6766.22	2.908987621
6773.53	2.846741496
6780.84	3.031268433
6788.14	2.864356233
6795.45	2.602712338
6802.76	2.446919474
6810.06	3.167011483
6817.37	3.084148158
6824.67	3.041719712
6831.98	2.796921209
6839.29	2.813269772
6846.59	2.770257051
6853.9	2.722564981
6861.21	2.783734454
6868.51	2.919814973
6875.82	2.867962542
6883.13	2.334046829
6890.43	2.618607681
6897.74	2.946302572
6905.04	2.819841607
6912.35	2.693721489
6919.66	2.637143876
6926.96	2.799145268
6934.27	2.808581324
6939.73	2.499969389
6945.19	2.312625767
6950.65	2.433357674
6956.11	2.306652744
6961.57	2.549020232
6967.02	2.72266424
6972.48	2.776451577
6977.94	2.76446897
6983.4	2.905144394
6988.86	2.651059923
6994.32	3.173454578
6999.78	3.097047205
7005.24	3.145055652
7010.7	2.722820309
7016.16	0.839018728
7021.61	1.916064867
7027.07	2.562963483
7032.53	2.583986563
7037.99	2.385442437
7043.45	2.250826912
7048.91	2.313122455
7054.37	0.5363338
7059.83	0.605795725
7065.29	2.011470078
7070.75	2.386535996
7076.21	2.389331599
7081.66	2.546812279
7087.12	2.535223752
7092.58	2.868102743
7098.04	3.11780561
7103.5	3.04652928
7108.96	3.260761278
7114.42	3.348681495
7119.88	3.50871443
7125.34	3.526454188
7130.8	3.623019929
7136.25	3.582755521
7141.71	3.637419941
7147.17	3.761823138
7152.63	3.561731584
7158.09	3.417088495
7163.55	3.464478257
7169.01	3.383326221
7174.47	3.261229278
7179.93	3.194917636
7185.39	3.009486536
7190.85	2.838408925
7196.3	3.122844593
7201.76	3.25983624
7207.22	3.0311772
7211.04	3.035651535
7214.87	2.837418022
7218.69	2.5638304
7222.51	2.620623198
7226.33	2.538502714
7230.15	2.504150837
7233.97	1.976197709
7237.8	2.30812305
7241.62	1.758895699
7245.44	1.44920564
7249.26	1.9667091
7253.08	2.695624155
7256.91	2.655102801
7260.73	2.752403369
7264.55	2.979964856
7268.37	3.336054233
7272.19	3.264883354
7276.01	3.089138504
7279.84	3.32923206
7283.66	2.958413869
7287.48	2.568652068
7291.3	2.457743813
7295.12	2.459103244
7298.94	2.46432518
7302.77	2.552876238
7306.59	2.694455692
7310.41	2.801657287
7314.23	2.674853501
7318.05	2.768825172
7321.88	2.560578025
7325.7	2.418239637
7329.52	2.691354899
7333.34	2.798229453
7337.16	2.622084604
7340.98	2.055261515
7344.81	2.333953304
7348.63	2.169148934
7352.45	1.901408842
7356.27	0.935927615
7360.09	1.609830482
7363.91	1.508611564
7367.74	1.677954955
7371.56	1.976350409
7375.38	1.753027373
7379.2	1.508025006
7383.02	1.839076305
7386.85	1.816900708
7390.67	1.603219202
7394.49	1.545270558
7398.31	1.801496574
7402.22	1.606627573
7406.12	1.746803227
7410.03	1.782256865
7413.93	1.67737569
7417.84	1.372571291
7421.75	1.464152391
7425.65	1.414781397
7429.56	1.665507454
7433.46	1.752490733
7437.37	1.616309529
7441.27	0.96501448
7445.18	1.243985394
7449.09	1.422976432
7452.99	1.808255533
7456.9	1.734437188
7460.8	1.794645931
7464.71	1.66732075
7468.61	1.330591116
7472.52	1.562208856
7476.43	1.682480794
7480.33	1.608179011
7484.24	1.133477834
7488.14	2.115254501
7492.05	2.039282296
7495.96	1.748401421
7499.86	1.151492488
7503.77	0.920163558
7507.67	1.112598531
7511.58	0.553877621
7515.48	1.125096456
7519.39	1.814580564
7523.3	1.887044749
7527.2	1.977861749
7531.11	1.736814604
7535.01	1.456831509
7538.92	1.785359706
7542.82	2.152750734
7546.73	2.006743841
7550.64	1.734615641
7554.54	0.967376655
7558.45	2.331832698
7562.35	2.654674007
7566.26	2.313226851
7570.17	2.308980422
7574.07	2.652543315
7577.98	2.516648118
7581.88	3.181201564
7585.79	2.892461979
7589.69	2.210474591
7593.6	1.971965263
7597.44	1.931324184
7601.27	1.696964301
7605.11	1.784348368
7608.95	1.81898951
7612.79	1.884486404
7616.62	1.509725384
7620.46	1.170389108
7624.3	1.570801411
7628.13	1.384628592
7631.97	1.372616883
7635.81	0.895369575
7639.65	1.111540717
7643.48	1.674012188
7647.32	1.800598688
7651.16	2.044464291
7654.99	2.094412487
7658.83	1.919995492
7662.67	1.861579075
7666.5	1.707221762
7670.34	1.325741293
7674.18	1.11194746
7678.02	1.194070324
7681.85	0.838714393
7685.69	1.153823181
7689.53	1.271919552
7693.36	1.423799683
7697.2	1.462483499
7701.04	1.722972521
7704.88	1.657337929
7708.71	1.986626567
7712.55	1.470734606
7716.39	2.015013941
7720.22	2.400950429
7724.06	2.307776641
7727.9	2.688825895
7731.74	2.886173679
7735.57	2.954028927
7739.41	3.060710397
7743.25	2.985212013
7747.08	2.8243012
7750.92	3.07562575
7754.76	3.326520883
7758.6	3.241882669
7762.43	3.622577673
7766.27	3.964676252
7770.11	3.613202204
7773.94	3.460883152
7777.78	3.365894534
7781.62	3.512841562
7785.45	3.415603887
7789.22	3.363438975
7792.98	3.268952693
7796.75	3.289707006
7800.51	3.144605896
7804.28	3.183652501
7808.04	3.211417862
7811.8	3.212360893
7815.57	3.11121243
7819.33	3.143854692
7823.1	3.165125402
7826.86	3.125204077
7830.63	3.117462656
7834.39	2.977616282
7838.15	2.479145712
7841.92	2.677334511
7845.68	2.635160715
7849.45	2.383288812
7853.21	2.507459423
7856.98	1.993139636
7860.74	1.890217999
7864.5	2.295490216
7868.27	2.443970393
7872.03	2.416673573
7875.8	2.287870623
7879.56	2.1102132
7883.33	2.198638405
7887.09	2.121134355
7890.85	2.211820168
7894.62	2.387178261
7898.38	2.297008827
7902.15	2.161597167
7905.91	2.427092107
7909.68	2.642105916
7913.44	3.044334759
7917.2	2.971043663
7920.97	3.184290084
7924.73	3.269188144
7928.5	3.225096843
7932.26	3.088197501
7936.03	3.303817248
7939.79	3.288295441
7943.55	3.149406649
7947.32	3.076132699
7951.08	3.160839062
7954.85	3.328927185
7958.61	3.138622311
7962.38	3.124645825
7966.14	3.133839157
7969.9	3.109169014
7973.67	3.210030094
7979.51	3.200930044
7985.35	3.163094245
7991.2	3.155100976
7997.04	3.142135449
8002.88	3.16375859
8008.73	3.169869421
8014.57	3.278075005
8020.41	3.145618555
8026.25	3.140891476
8032.1	3.226320571
8037.94	3.223321885
8043.78	3.19929292
8049.63	3.212485077
8055.47	3.237951972
8061.31	3.267887448
8067.15	3.277097086
8073	3.28809297
8078.84	3.32136265
8084.68	3.049830183
8090.53	2.582006139
8096.37	2.439631313
8102.21	2.002188913
8108.05	0.246549198
8113.9	2.059982605
8119.74	1.985763414
8125.58	2.148499262
8131.43	2.158498262
8137.27	1.325153077
8143.11	1.391503144
8148.95	2.041771913
8154.8	2.815966084
8160.64	2.147760786
8166.48	2.037532101
8172.33	1.832354661
8178.17	2.196457186
8184.01	2.545333763
8189.85	1.902168988
8195.7	1.365483924
8201.54	2.427701025
8207.38	1.731489
8213.23	1.967758655
8219.07	2.244573895
8224.91	1.997859174
8230.76	0.836333724
8236.6	-1.187528456
8242.44	0.260036778
8248.28	1.175081595
8254.13	1.440252763
8259.97	1.53373224
8265.81	1.791944176
8272.17	2.194467585
8278.54	2.652123521
8284.9	2.873106987
8291.26	2.895817279
8297.62	2.794993687
8303.98	2.763760043
8310.35	2.308623098
8316.71	1.603836808
8323.07	0.070295525
8329.43	-1.687788781
8335.79	-1.988817712
8342.16	0.190697138
8348.52	0.758005374
8354.88	2.013834434
8361.24	2.590435615
8367.6	2.507324544
8373.97	2.162257915
8380.33	0.74292243
8386.69	1.027222596
8393.05	1.989185273
8399.41	2.018350685
8405.77	0.848246977
8412.14	0.890471565
8418.5	2.097178162
8424.86	2.572775862
8431.22	2.207501756
8437.58	1.533158
8443.95	-0.495985453
8450.31	-0.373172624
8456.67	1.983906218
8463.03	1.24187875
8469.39	0.802080018
8475.76	2.355133855
8482.12	2.722831596
8488.48	2.511446815
8494.84	1.547635454
8501.2	1.231732435
8507.57	0.050193607
8513.93	-0.240779431
8520.29	3.328647649
8526.65	2.919271107
8533.01	2.923780531
8539.38	3.272563158
8545.74	2.91242632
8552.1	2.776308184
8558.46	2.671239443
8564.82	2.46637068
8571.19	2.740840024
8577.55	2.850230468
8583.91	2.9583437
8588.4	3.201898701
8592.89	2.770311147
8597.38	2.697130311
8601.87	2.571425929
8606.36	2.526640281
8610.85	2.332727813
8615.34	2.375058356
8619.83	2.137113934
8624.32	2.170992838
8628.82	2.061615282
8633.31	2.147929788
8637.8	1.901458386
8642.29	2.027491755
8646.78	1.536546401
8673.72	3.07507444
8678.21	2.971517262
8682.7	3.229641199
8687.19	3.346902143
8691.68	3.322700916
8696.17	3.318786358
8700.66	3.348347263
8705.16	3.264170246
8709.65	3.336645776
8714.14	3.316946585
8718.63	3.409147322
8723.12	3.390103444
8727.61	3.442027581
8732.1	3.440266768
8736.59	3.397632089
8741.08	3.390749833
8745.57	3.401739534
8750.06	3.49188359
8754.55	3.537807286
8759.04	3.509995631
8763.53	3.503292133
8768.02	3.366794673
8772.51	3.210874316
8777	2.619268174
8781.49	2.573583756
8785.99	0.854742502
8790.48	1.575810268
8794.97	1.23603968
8799.46	1.354669184
8803.95	1.51275454
8808.44	1.635257039
8813.47	1.947129166
8818.5	1.138367796
8823.53	1.228027361
8828.56	1.360258649
8833.59	1.914258124
8838.62	1.608308242
8843.64	1.47799493
8848.67	2.090712707
8853.7	1.825895506
8858.73	1.422285926
8863.76	1.394819562
8868.79	1.521613009
8873.82	1.584218807
8878.85	1.718828153
8883.88	1.631241325
8888.91	1.052632485
8893.94	0.730426537
8898.97	1.289584621
8904	1.174921862
8909.03	1.84376843
8914.06	2.344361497
8919.09	0.9896099
8924.12	0.850822243
8929.15	0.753077412
8934.17	1.438118218
8939.2	3.775949759
8944.23	2.770825527
8949.26	1.579344957
8954.29	1.784758601
8959.32	2.397773648
8964.35	0.452421357
8969.38	3.224697356
8974.41	3.080660027
8979.44	1.702288066
8984.47	1.602673512
8989.5	1.422505892
8994.53	1.555333178
8999.56	1.415210693
9004.59	1.518614243
9009.62	1.091259859
9014.65	0.533708638
9019.68	-0.201184804
9024.7	-0.700699935
9029.73	-0.509849891
9034.76	0.442640495
9039.79	1.204428866
9044.82	1.149403914
9049.85	0.744189823
9054.88	0.82425394
9059.91	1.286714715
9070.64	0.925157007
9081.37	0.71517725
9092.1	-0.789272897
9102.83	-0.848475096
9113.56	-0.782977513
9124.29	0.24710629
9135.02	-1.019707576
9145.74	1.458044001
9156.47	1.869707589
9167.2	1.680343698
9177.93	1.523289434
9188.66	1.403326084
9199.39	1.429654937
9210.12	1.786709444
9220.85	1.92950713
9231.58	2.043796687
9242.31	1.793211902
9253.04	1.243558117
9263.77	0.888154997
9274.5	-0.609666252
9285.23	-0.119682117
9295.95	1.431749406
9306.68	1.818057747
9317.41	1.709617244
9328.14	0.098246755
9338.87	0.084334344
9349.6	-0.430530714
9360.33	1.279704373
9371.06	1.36360665
9381.79	2.095964141
9392.52	2.413424111
9403.25	1.902297421
9413.98	0.137338062
9424.71	0.504748585
9435.43	1.590015112
9446.16	0.92077335
9456.89	0.431628659
9467.62	-1.112814969
9478.35	-0.418814117
9489.08	0.189451159
9499.81	0.559358523
9510.54	1.504672934
9521.27	2.892221897
9532	2.695716134
9542.73	2.643735241
9553.46	2.884856024
9564.19	2.68616749
9574.92	2.586764535
9585.64	2.691608421
9596.37	2.870446461
9607.1	2.966032261
9617.83	3.069155544
9628.56	2.990093918
9639.29	2.858471273
9650.02	2.861406915
9660.75	2.539029447
9671.48	2.273089029
9682.21	1.769887706
9692.94	1.308730197
9703.67	0.007362158
9725.12	1.929154004
9735.85	2.091152801
9746.58	0.432079653
9768.04	2.525173732
9778.77	2.212342366
9789.5	2.422825632
9800.23	0.88371499
9810.96	-1.364450818
9821.69	-1.102221548
9832.42	0.767094017
9843.15	2.014205578
9853.88	2.568208036
9864.61	2.729873705
9875.33	2.879040686
9886.06	2.890009472
9896.79	2.813170207
9907.52	2.813876846
9918.25	2.960553381
9928.98	2.940029896
9939.71	2.973331973
9950.44	3.04072682
9961.17	3.157389691
9971.9	3.253125324
9982.63	3.461027383
9993.36	3.377725025
10014.81	3.329915101
10025.54	3.400470901
10036.27	3.472229432
10047	3.618484153
10057.73	3.610556282
10068.46	3.815176185